Wavelength	As-cast	Co-facial	End-on
1100.05554	0.07784	0.08894	0.09484
1099.46741	0.08603	0.11109	0.08913
1098.99683	0.07714	0.10775	0.10025
1098.526	0.08063	0.09254	0.10373
1098.05505	0.09247	0.10063	0.10658
1097.46619	0.07275	0.10592	0.1034
1096.99487	0.10503	0.09942	0.11017
1096.52332	0.07652	0.09093	0.12056
1096.05164	0.08516	0.08422	0.09802
1095.46179	0.0819	0.0925	0.10375
1094.98975	0.08212	0.11636	0.11317
1094.51758	0.08949	0.08459	0.09981
1094.04517	0.08068	0.10597	0.09792
1093.45447	0.0806	0.09799	0.11234
1092.98169	0.10128	0.10461	0.09709
1092.50879	0.08226	0.09456	0.10907
1092.03565	0.08743	0.09871	0.11058
1091.44397	0.08292	0.0848	0.10169
1090.97046	0.08904	0.09053	0.11089
1090.49683	0.08879	0.09695	0.09768
1090.02307	0.07813	0.09712	0.09577
1089.54907	0.09088	0.09583	0.1033
1088.9563	0.10221	0.09953	0.10121
1088.48193	0.08594	0.09621	0.10689
1088.00745	0.08497	0.1	0.11255
1087.53272	0.08856	0.09212	0.09455
1087.05786	0.09957	0.096	0.11197
1086.46399	0.09231	0.10477	0.11197
1085.98877	0.07823	0.08863	0.11606
1085.51343	0.08168	0.09444	0.10922
1085.03784	0.08431	0.10305	0.1104
1084.44312	0.08369	0.0963	0.10371
1083.96716	0.09092	0.09976	0.11191
1083.49097	0.07714	0.09154	0.09537
1083.01477	0.09284	0.0927	0.10572
1082.53821	0.07922	0.10209	0.11407
1081.94251	0.08874	0.09603	0.10175
1081.46558	0.09123	0.09784	0.11042
1080.98865	0.09892	0.09861	0.09987
1080.51148	0.09222	0.10006	0.11546
1080.03406	0.0931	0.1041	0.10326
1079.55664	0.09121	0.1093	0.11114
1078.95947	0.09222	0.10818	0.10959
1078.48169	0.09222	0.10318	0.1135
1078.00354	0.09613	0.09876	0.12128
1077.52539	0.09601	0.10251	0.11461
1077.047	0.09454	0.09078	0.11298
1076.44885	0.09634	0.09663	0.11562
1075.97009	0.09636	0.10015	0.12412
1075.49121	0.09122	0.10948	0.11639
1075.01209	0.09554	0.10351	0.1164
1074.53284	0.09866	0.09298	0.10786
1074.05347	0.08715	0.09086	0.11224
1073.45398	0.09831	0.09982	0.12142
1072.97412	0.09432	0.09892	0.12525
1072.49426	0.09524	0.09544	0.11157
1072.01416	0.08418	0.10617	0.12041
1071.53381	0.08585	0.0968	0.11404
1071.05335	0.08776	0.0931	0.1122
1070.45264	0.09551	0.10547	0.10943
1069.9718	0.09476	0.09531	0.11653
1069.49085	0.10186	0.10004	0.11204
1069.00964	0.0956	0.09869	0.11476
1068.52832	0.09694	0.09738	0.11681
1068.04688	0.10132	0.1018	0.11676
1067.44482	0.09638	0.10306	0.11514
1066.96301	0.09586	0.1018	0.1191
1066.48096	0.09453	0.10452	0.12022
1065.99878	0.09338	0.09895	0.1117
1065.51648	0.09444	0.10259	0.11582
1065.03394	0.09933	0.09978	0.12301
1064.55127	0.1022	0.10069	0.12226
1063.94775	0.09576	0.10236	0.12688
1063.46472	0.09982	0.10491	0.11828
1062.98157	0.08974	0.10649	0.12264
1062.49817	0.09945	0.09857	0.11927
1062.01465	0.09166	0.10358	0.11622
1061.53101	0.09658	0.1011	0.11031
1061.04712	0.09691	0.10445	0.11542
1060.44202	0.0939	0.09624	0.12063
1059.95789	0.09866	0.11047	0.1196
1059.47351	0.0932	0.10113	0.11523
1058.98889	0.09099	0.09748	0.12189
1058.50415	0.10239	0.09892	0.11688
1058.01929	0.10095	0.10137	0.11357
1057.5343	0.10034	0.10242	0.12124
1057.04907	0.09616	0.10376	0.1177
1056.44238	0.09888	0.10475	0.11139
1055.95679	0.09566	0.10525	0.12462
1055.47107	0.10266	0.10285	0.12471
1054.98523	0.10309	0.10099	0.11346
1054.49915	0.10424	0.10246	0.12779
1054.01294	0.09634	0.1048	0.11954
1053.52649	0.10569	0.10278	0.12159
1053.04004	0.09945	0.1023	0.11931
1052.55335	0.09944	0.10475	0.12439
1051.9447	0.1021	0.1002	0.11923
1051.45764	0.10236	0.1061	0.11964
1050.97046	0.09995	0.10808	0.12466
1050.48303	0.0975	0.10335	0.12231
1049.99548	0.1035	0.10582	0.1247
1049.50769	0.10317	0.10042	0.12131
1049.0199	0.09904	0.10326	0.11699
1048.53186	0.10028	0.10052	0.1273
1048.04358	0.10188	0.10301	0.12302
1047.5553	0.10462	0.1073	0.12185
1046.94458	0.09991	0.10307	0.12711
1046.45593	0.09863	0.10183	0.12578
1045.96704	0.10173	0.10096	0.12594
1045.47791	0.10235	0.10856	0.12582
1044.98877	0.10024	0.10031	0.12655
1044.49939	0.09755	0.10175	0.12348
1044.00989	0.10966	0.10753	0.1201
1043.52014	0.10458	0.1044	0.12381
1043.03027	0.1011	0.10536	0.12822
1042.54028	0.10086	0.10448	0.12344
1042.05017	0.10496	0.10879	0.12634
1041.55981	0.10357	0.10812	0.12357
1040.94666	0.10212	0.1058	0.12914
1040.45593	0.10172	0.10661	0.12673
1039.96509	0.10904	0.108	0.12805
1039.47412	0.10263	0.10762	0.12859
1038.98291	0.10679	0.10679	0.12748
1038.49158	0.106	0.10491	0.12832
1038.00012	0.10794	0.10537	0.12777
1037.50842	0.10591	0.10844	0.12487
1037.0166	0.1053	0.10714	0.1259
1036.52466	0.1034	0.10508	0.13289
1036.03247	0.10346	0.11048	0.12741
1035.54016	0.10788	0.10816	0.13202
1035.04773	0.10585	0.10732	0.12857
1034.55518	0.10625	0.10804	0.13233
1033.93909	0.10414	0.10721	0.12986
1033.44617	0.10778	0.10875	0.13296
1032.953	0.10646	0.10736	0.125
1032.45972	0.10616	0.11107	0.1303
1031.96631	0.11047	0.1086	0.13035
1031.47266	0.10749	0.10641	0.13082
1030.97888	0.10554	0.10762	0.13059
1030.48499	0.10542	0.10856	0.13331
1029.99097	0.10607	0.11375	0.13446
1029.4967	0.10774	0.10711	0.13065
1029.00232	0.10918	0.11141	0.13183
1028.50769	0.11029	0.11112	0.13233
1028.01294	0.10859	0.11168	0.13301
1027.51807	0.10924	0.10983	0.13365
1027.02307	0.11109	0.10953	0.13249
1026.52783	0.10921	0.11257	0.1326
1026.03259	0.10893	0.11266	0.13553
1025.53699	0.10872	0.10883	0.13421
1025.04138	0.10777	0.1117	0.1311
1024.54553	0.11156	0.11089	0.13579
1024.04956	0.10896	0.11175	0.1366
1023.55341	0.11033	0.11085	0.13295
1023.05713	0.11103	0.10942	0.13406
1022.56067	0.11187	0.11167	0.13509
1021.93988	0.11201	0.11412	0.13747
1021.44305	0.10834	0.11395	0.13391
1020.94605	0.11197	0.11239	0.136
1020.44898	0.11278	0.11256	0.13626
1019.95166	0.11153	0.11278	0.13378
1019.45422	0.11231	0.10975	0.13598
1018.9566	0.11323	0.11472	0.1342
1018.45886	0.11361	0.11181	0.1369
1017.96094	0.11414	0.11348	0.13711
1017.46289	0.11381	0.11308	0.13745
1016.96466	0.11286	0.1142	0.13835
1016.46631	0.11568	0.11222	0.13749
1015.96777	0.11606	0.11587	0.13889
1015.46906	0.11329	0.11534	0.13899
1014.97022	0.1165	0.11349	0.13833
1014.47119	0.11652	0.11534	0.14098
1013.97205	0.1163	0.11418	0.14017
1013.47272	0.11428	0.11582	0.13829
1012.97321	0.1187	0.11613	0.13961
1012.47357	0.11665	0.116	0.14132
1011.97382	0.11619	0.1161	0.14257
1011.47388	0.11662	0.11567	0.13917
1010.97376	0.11638	0.1174	0.14138
1010.47351	0.11859	0.11697	0.13974
1009.97308	0.11593	0.11671	0.14046
1009.47253	0.1189	0.11638	0.14405
1008.9718	0.1187	0.11813	0.14004
1008.47095	0.11729	0.11843	0.14454
1007.96991	0.11925	0.11716	0.1438
1007.46869	0.1185	0.11849	0.1435
1006.96735	0.11834	0.11498	0.1434
1006.46582	0.12157	0.11836	0.143
1005.96417	0.12159	0.117	0.14313
1005.4624	0.11869	0.1183	0.14178
1004.96039	0.11961	0.11973	0.14402
1004.45831	0.12154	0.11684	0.14373
1003.95599	0.12069	0.11821	0.14274
1003.45361	0.12164	0.11781	0.14414
1002.95099	0.12025	0.11948	0.14586
1002.44824	0.12168	0.12048	0.14447
1001.94537	0.12166	0.11778	0.14481
1001.44232	0.12298	0.11933	0.14515
1000.93915	0.12231	0.11805	0.14828
1000.56165	0.1227	0.1191	0.14549
1000.05817	0.12225	0.12024	0.14621
999.5545	0.12321	0.12124	0.14839
999.05072	0.12372	0.12041	0.14715
998.54681	0.12413	0.11929	0.14615
998.04272	0.12509	0.12119	0.14756
997.53845	0.12366	0.1208	0.14728
997.03406	0.12674	0.12083	0.14909
996.52954	0.12621	0.12142	0.14842
996.02484	0.12593	0.12199	0.14768
995.51996	0.12636	0.12215	0.14984
995.01495	0.12626	0.1217	0.14941
994.50983	0.12667	0.12221	0.14885
994.00452	0.12695	0.12311	0.14983
993.49902	0.12712	0.12184	0.15007
992.99341	0.12782	0.12266	0.15085
992.48761	0.12784	0.12258	0.15088
991.98169	0.12685	0.12285	0.15104
991.47565	0.12799	0.12435	0.15183
990.96936	0.12999	0.12436	0.15242
990.46301	0.12895	0.12386	0.15042
989.95648	0.12967	0.12362	0.1536
989.44977	0.13044	0.12164	0.15131
988.94293	0.13089	0.12429	0.15299
988.56268	0.13031	0.12402	0.15292
988.0556	0.1312	0.1245	0.1529
987.54834	0.13128	0.12361	0.15494
987.04089	0.13184	0.12439	0.15478
986.53333	0.13348	0.12481	0.15397
986.02563	0.13394	0.12528	0.15329
985.51776	0.13234	0.12474	0.15581
985.0097	0.13185	0.12429	0.15485
984.50153	0.13332	0.12423	0.15667
983.99323	0.13318	0.12549	0.1559
983.48474	0.13328	0.12608	0.1561
982.97614	0.13409	0.1266	0.15774
982.46735	0.13327	0.12504	0.15726
981.95837	0.13406	0.12647	0.15711
981.44934	0.13566	0.12574	0.15857
980.94006	0.13682	0.1265	0.1582
980.55804	0.13647	0.12795	0.15904
980.04852	0.13684	0.12734	0.15942
979.53888	0.13631	0.12739	0.15966
979.02911	0.13719	0.12742	0.1594
978.51917	0.13824	0.12756	0.15988
978.00903	0.13766	0.12743	0.15952
977.49878	0.13828	0.12825	0.16054
976.9884	0.139	0.12827	0.16129
976.47784	0.13944	0.12923	0.16183
975.9671	0.13926	0.12916	0.16034
975.4563	0.14044	0.1285	0.16217
974.94525	0.14094	0.1287	0.16313
974.56189	0.14183	0.12908	0.16326
974.05066	0.14173	0.12956	0.16388
973.53925	0.14315	0.1298	0.16503
973.02765	0.1426	0.13103	0.16335
972.51593	0.14325	0.12914	0.16463
972.00409	0.14357	0.13017	0.16557
971.49207	0.14323	0.13059	0.16621
970.97986	0.14442	0.12975	0.16533
970.46753	0.14522	0.13105	0.16627
969.95508	0.14533	0.13063	0.16476
969.4425	0.14488	0.13071	0.16709
969.05792	0.14714	0.1317	0.16717
968.54504	0.14657	0.13168	0.16772
968.03198	0.14812	0.13053	0.16834
967.51886	0.14758	0.13268	0.16952
967.00549	0.14854	0.13157	0.17045
966.492	0.14843	0.13183	0.17089
965.97839	0.14914	0.13249	0.16872
965.46466	0.15034	0.13256	0.17023
964.95068	0.14987	0.13418	0.17136
964.43665	0.15017	0.13258	0.17125
964.05096	0.15182	0.13261	0.17221
963.53668	0.15112	0.13286	0.17374
963.02216	0.15273	0.13375	0.17334
962.50757	0.1534	0.13372	0.17373
961.9928	0.15222	0.13302	0.17448
961.47784	0.15312	0.13336	0.17503
960.96277	0.15359	0.13455	0.1752
960.44757	0.15524	0.13472	0.17667
960.06104	0.15691	0.13533	0.17619
959.54559	0.15711	0.13569	0.1774
959.02997	0.15718	0.13396	0.17847
958.51416	0.15739	0.13532	0.17831
957.99823	0.15828	0.13513	0.17904
957.48218	0.15882	0.13619	0.17817
956.96594	0.15942	0.13519	0.18085
956.44959	0.15918	0.13622	0.18024
956.06226	0.16064	0.13717	0.18114
955.54559	0.16069	0.13697	0.18195
955.02887	0.16118	0.13643	0.18302
954.5119	0.16268	0.13699	0.18358
953.99487	0.16315	0.13675	0.18312
953.47766	0.16306	0.13757	0.18423
952.96027	0.16432	0.13772	0.18565
952.44281	0.16427	0.1369	0.18486
952.05457	0.16561	0.13801	0.18675
951.5368	0.16629	0.13776	0.18771
951.01892	0.16712	0.13786	0.18868
950.50085	0.16829	0.13812	0.18856
949.98261	0.1681	0.13828	0.18947
949.46429	0.16834	0.13843	0.19032
948.9458	0.16859	0.13923	0.19034
948.55682	0.16952	0.13845	0.19063
948.03809	0.17074	0.14031	0.19216
947.51917	0.17125	0.13952	0.1926
947.00012	0.17287	0.1401	0.1941
946.48096	0.17284	0.13985	0.19399
945.96161	0.17368	0.14022	0.19649
945.44214	0.17388	0.14063	0.1959
945.05243	0.17518	0.14023	0.19666
944.53271	0.17541	0.14073	0.19746
944.01282	0.17736	0.14012	0.19859
943.4928	0.17728	0.14103	0.20066
942.97266	0.17897	0.14179	0.20075
942.45233	0.17992	0.14145	0.20114
942.06195	0.18036	0.14199	0.20326
941.54138	0.18181	0.14217	0.20328
941.02069	0.18117	0.14184	0.20611
940.49982	0.18247	0.14322	0.20694
939.97882	0.18329	0.14179	0.20725
939.4577	0.18386	0.14297	0.20816
938.9364	0.18551	0.14337	0.20918
938.54535	0.18635	0.14313	0.21072
938.02374	0.18776	0.14351	0.21234
937.50208	0.18792	0.14376	0.21294
936.98022	0.1896	0.14412	0.21336
936.45825	0.18974	0.14428	0.21463
935.93616	0.18975	0.14436	0.21641
935.54443	0.19179	0.14561	0.21855
935.02209	0.19227	0.14409	0.21927
934.49957	0.19399	0.14445	0.2209
933.97687	0.19383	0.14581	0.22257
933.4541	0.19577	0.14635	0.22433
933.06189	0.19705	0.14612	0.22433
932.53882	0.19799	0.14607	0.22786
932.01563	0.19806	0.14674	0.22736
931.49225	0.20145	0.14696	0.23072
930.96875	0.20158	0.14786	0.2311
930.44513	0.20195	0.1467	0.23337
930.05231	0.20364	0.14835	0.23454
929.52844	0.20462	0.14925	0.23748
929.00439	0.20483	0.14907	0.23749
928.48022	0.20653	0.14822	0.23999
927.95593	0.20865	0.14868	0.24238
927.56256	0.21001	0.14929	0.24392
927.03802	0.20962	0.14941	0.24561
926.51331	0.21123	0.14958	0.24763
925.98846	0.21232	0.14982	0.24915
925.46344	0.21411	0.14989	0.25117
924.93829	0.21495	0.15055	0.25451
924.54437	0.21602	0.15026	0.25672
924.01898	0.21691	0.15105	0.25873
923.49347	0.2183	0.15097	0.26064
922.96777	0.21983	0.15138	0.26343
922.44196	0.22095	0.15145	0.2652
922.04755	0.22298	0.15299	0.26849
921.52148	0.22445	0.15195	0.27065
920.99524	0.22537	0.15195	0.27441
920.46893	0.22725	0.15216	0.27604
919.94244	0.22922	0.15264	0.2804
919.54749	0.22968	0.15327	0.2819
919.02075	0.23183	0.15359	0.28559
918.49384	0.23308	0.15392	0.28789
917.96686	0.23446	0.15397	0.29154
917.4397	0.23574	0.15402	0.2939
917.04419	0.23757	0.15428	0.29643
916.51678	0.23887	0.15409	0.29956
915.98926	0.24015	0.15447	0.30281
915.46155	0.24244	0.15499	0.30589
915.06573	0.24309	0.15522	0.30811
914.53778	0.24563	0.15527	0.31295
914.0097	0.24633	0.15578	0.31618
913.48145	0.25024	0.15614	0.31997
912.95313	0.25011	0.15653	0.32473
912.55676	0.252	0.15647	0.32763
912.02814	0.2542	0.15676	0.33056
911.49939	0.25549	0.15726	0.33635
910.97052	0.25763	0.15717	0.33907
910.44147	0.25917	0.15713	0.3453
910.04462	0.26023	0.15821	0.34564
909.51538	0.26282	0.15766	0.35196
908.98596	0.26542	0.15847	0.35779
908.45642	0.26735	0.15828	0.3625
908.05914	0.26852	0.15914	0.36411
907.52936	0.27133	0.15933	0.36925
906.99939	0.27382	0.15998	0.37258
906.4693	0.2758	0.15946	0.37858
905.93909	0.278	0.15989	0.38372
905.54138	0.27966	0.15985	0.38821
905.01093	0.28177	0.16015	0.39341
904.48029	0.2823	0.15989	0.39597
903.94959	0.28594	0.16054	0.40251
903.55139	0.28667	0.16048	0.4069
903.02045	0.28998	0.16078	0.4116
902.48932	0.29317	0.16162	0.4155
901.95807	0.29581	0.16238	0.42275
901.55951	0.2957	0.1616	0.42578
901.02802	0.30008	0.16204	0.43391
900.49634	0.30094	0.16229	0.43911
899.9646	0.30618	0.16246	0.44661
899.56567	0.30661	0.16228	0.44847
899.03363	0.30948	0.16294	0.45634
898.50146	0.31231	0.16291	0.45943
897.96918	0.31516	0.16271	0.46926
897.43671	0.31735	0.16374	0.47425
897.03729	0.31978	0.16381	0.47771
896.50464	0.32341	0.16409	0.48601
895.9718	0.3255	0.16471	0.49043
895.43884	0.32851	0.16534	0.49741
895.03906	0.32968	0.16525	0.50023
894.50586	0.33316	0.16544	0.50917
893.97247	0.33568	0.1657	0.51257
893.43903	0.3404	0.16576	0.52336
893.03882	0.34143	0.1666	0.52473
892.50513	0.34591	0.16603	0.53544
891.97125	0.34879	0.16663	0.53954
891.43726	0.35322	0.16782	0.5482
891.03668	0.3537	0.16937	0.55344
890.50244	0.35856	0.16861	0.55761
889.96808	0.36093	0.16851	0.56729
889.43359	0.36499	0.16968	0.57292
889.03259	0.3679	0.17009	0.57828
888.49786	0.37222	0.16974	0.58653
887.96301	0.37582	0.17064	0.59628
887.56171	0.37765	0.17116	0.60044
887.02661	0.38242	0.17256	0.60647
886.49133	0.38612	0.17275	0.61302
885.95593	0.39036	0.17291	0.62317
885.55432	0.39198	0.17404	0.62623
885.01868	0.3978	0.17418	0.63686
884.48291	0.40096	0.17531	0.64195
883.94702	0.40632	0.17607	0.65298
883.54498	0.4094	0.17743	0.65809
883.00885	0.41428	0.17774	0.66332
882.4726	0.4172	0.17901	0.67274
881.93616	0.42178	0.17978	0.67848
881.53375	0.42483	0.18142	0.68342
880.99707	0.42884	0.18158	0.68989
880.46033	0.43444	0.18336	0.70147
880.05762	0.43891	0.1843	0.70577
879.52063	0.44268	0.18624	0.71144
878.98346	0.44681	0.18754	0.72104
878.44617	0.44994	0.18944	0.73251
878.04309	0.4549	0.19092	0.73175
877.50555	0.46024	0.19204	0.74332
876.9679	0.46498	0.1939	0.75214
876.56451	0.47112	0.19516	0.75436
876.02661	0.47253	0.1979	0.76209
875.48859	0.47821	0.19845	0.77294
874.95038	0.48454	0.2014	0.77777
874.54669	0.4883	0.20322	0.78869
874.0083	0.4928	0.20502	0.78928
873.46973	0.49875	0.20691	0.79823
873.06573	0.50365	0.20879	0.81277
872.52692	0.50842	0.2118	0.80807
871.98804	0.51345	0.21392	0.82777
871.44897	0.51728	0.21606	0.82744
871.04462	0.52333	0.21838	0.84726
870.50531	0.52732	0.22052	0.84148
869.96588	0.53352	0.22178	0.85747
869.56122	0.53784	0.22502	0.85265
869.02161	0.54231	0.22788	0.85826
868.48181	0.549	0.2305	0.87974
867.94189	0.55532	0.2326	0.87391
867.53687	0.55922	0.23553	0.8913
866.9967	0.56278	0.23633	0.88926
866.45642	0.56927	0.23965	0.89693
866.05109	0.57404	0.24285	0.89825
865.51056	0.57944	0.24462	0.9167
864.96991	0.58292	0.24849	0.92155
864.56433	0.58913	0.24927	0.91858
864.02344	0.59368	0.25249	0.93247
863.48242	0.60114	0.25391	0.93733
862.94128	0.60261	0.25723	0.94656
862.53534	0.60691	0.25933	0.94033
861.9939	0.61236	0.26116	0.9498
861.45239	0.61924	0.26283	0.95695
861.04614	0.62684	0.26369	0.96358
860.50439	0.62939	0.26778	0.95988
859.96252	0.63738	0.26987	0.96777
859.55603	0.64239	0.2721	0.97628
859.01392	0.64367	0.27336	0.98102
858.47168	0.64728	0.27311	0.98499
858.06488	0.65478	0.27549	1.00294
857.5224	0.65868	0.27807	0.99895
856.9798	0.66461	0.27908	0.99701
856.43707	0.6661	0.28188	1.01172
856.02991	0.67109	0.2828	1.00147
855.48694	0.67916	0.2838	1.00422
854.94379	0.68175	0.28456	1.00329
854.53638	0.68624	0.2874	1.01936
853.99304	0.69021	0.28827	1.00735
853.44959	0.69913	0.28846	1.02176
853.04187	0.69996	0.29076	1.01547
852.49817	0.70194	0.29246	1.03196
851.95435	0.70883	0.29178	1.01755
851.54639	0.71195	0.29303	1.03132
851.00232	0.71163	0.29477	1.01816
850.45813	0.71736	0.29486	1.01628
850.04993	0.7227	0.29557	1.0213
849.50549	0.72073	0.29547	1.03569
848.96094	0.72861	0.29658	1.03096
848.55243	0.73305	0.29707	1.01901
848.00763	0.73711	0.29823	1.02796
847.46277	0.74113	0.29857	1.0264
847.05396	0.74329	0.29829	1.02098
846.50885	0.7433	0.29852	1.01611
845.96356	0.7526	0.2998	1.03356
845.5545	0.74773	0.30025	1.01593
845.00903	0.75494	0.30075	1.00572
844.46338	0.7579	0.30133	1.01395
844.05408	0.76182	0.30231	1.00455
843.50824	0.7656	0.30165	0.99783
842.96222	0.77085	0.302	1.00654
842.55267	0.76648	0.30241	0.99529
842.00647	0.77282	0.30241	0.98848
841.46008	0.77371	0.30354	0.98754
841.05023	0.7769	0.3031	0.99397
840.50366	0.77839	0.30362	0.9755
839.95697	0.78156	0.30293	0.97634
839.54688	0.78539	0.30371	0.9865
838.99994	0.78252	0.30387	0.97887
838.45288	0.78675	0.30324	0.96277
838.04254	0.78767	0.30292	0.96365
837.49524	0.79104	0.30435	0.95862
836.94781	0.79375	0.30376	0.94799
836.53717	0.7982	0.30429	0.94981
835.98956	0.79784	0.30506	0.94482
835.44177	0.79878	0.30491	0.93366
835.03088	0.79929	0.30496	0.93432
834.48285	0.79951	0.30479	0.92469
833.93475	0.80323	0.3042	0.92016
833.52356	0.80394	0.30445	0.91261
832.97522	0.80486	0.30461	0.91439
832.5639	0.80262	0.30421	0.90448
832.01532	0.80743	0.30472	0.90109
831.46661	0.80774	0.30435	0.89448
831.05505	0.81015	0.30454	0.88629
830.5061	0.80732	0.30502	0.87774
829.95703	0.80992	0.30537	0.87819
829.54517	0.81029	0.30485	0.87447
828.99591	0.80944	0.30506	0.86243
828.44653	0.81311	0.30487	0.8603
828.03436	0.81244	0.30485	0.8556
827.48474	0.81396	0.30454	0.8482
826.935	0.81443	0.30451	0.84544
826.52258	0.81753	0.30441	0.83364
825.97266	0.81399	0.30431	0.83478
825.56006	0.81534	0.30507	0.82391
825.00989	0.81528	0.30494	0.8207
824.45953	0.81736	0.30543	0.81352
824.04669	0.81546	0.30527	0.80758
823.49615	0.81566	0.30439	0.80173
822.9455	0.81407	0.3044	0.79737
822.53241	0.81563	0.30458	0.79256
821.98151	0.81417	0.30411	0.78807
821.56824	0.81818	0.305	0.77872
821.01715	0.81597	0.30505	0.77746
820.46588	0.81296	0.3053	0.77023
820.05237	0.81389	0.30499	0.76929
819.50092	0.81124	0.30422	0.75957
818.94934	0.81405	0.30452	0.75907
818.53558	0.81347	0.30405	0.75016
817.98376	0.81726	0.30562	0.73945
817.43182	0.81278	0.30523	0.74368
817.01776	0.81127	0.30506	0.73293
816.46564	0.80918	0.3045	0.73069
816.05139	0.81104	0.30458	0.72872
815.49902	0.80795	0.30382	0.71528
814.94653	0.80732	0.30526	0.72048
